SpectraSuite Data File
++++++++++++++++++++++++++++++++++++
Date: Fri Jul 17 04:24:51 CEST 2009
User: hertz
Dark Spectrum Present: No
Reference Spectrum Present: No
Number of Sampled Component Spectra: 1
Spectrometers: USB4C01162
Integration Time (usec): 100000 (USB4C01162)
Spectra Averaged: 1 (USB4C01162)
Boxcar Smoothing: 0 (USB4C01162)
Correct for Electrical Dark: No (USB4C01162)
Strobe/Lamp Enabled: No (USB4C01162)
Correct for Detector Non-linearity: No (USB4C01162)
Correct for Stray Light: No (USB4C01162)
Number of Pixels in Processed Spectrum: 3648
>>>>>Begin Processed Spectral Data<<<<<
178.80	1472.49
179.01	1472.49
179.23	1472.49
179.44	1533.93
179.66	1476.59
179.88	1937.38
180.09	1976.29
180.31	1916.90
180.52	2131.94
180.74	1783.78
180.95	1890.28
181.17	1873.89
181.38	2297.82
181.60	1804.26
181.81	1718.25
182.03	1886.18
182.24	1976.29
182.46	1869.80
182.67	2514.91
182.89	3278.80
183.10	3243.98
183.32	2961.36
183.53	3098.58
183.75	3610.57
183.96	3278.80
184.18	3035.09
184.40	3026.90
184.61	3428.30
184.83	3418.06
185.04	3104.72
185.26	3069.91
185.47	3289.04
185.69	3473.36
185.90	3184.59
186.12	3043.28
186.33	3303.37
186.55	3272.65
186.76	3137.49
186.98	3076.05
187.19	3315.66
187.41	3393.48
187.62	2981.84
187.84	3106.77
188.05	3491.79
188.27	3438.54
188.48	3071.95
188.70	3141.58
188.91	3289.04
189.13	3114.96
189.34	3223.50
189.56	3049.43
189.77	3301.33
189.99	3225.55
190.20	3121.10
190.42	3024.85
190.63	3456.97
190.85	3342.28
191.06	3145.68
191.27	3063.76
191.49	3143.63
191.70	3221.45
191.92	3176.40
192.13	3045.33
192.35	3352.52
192.56	3409.87
192.78	3137.49
192.99	3137.49
193.21	3286.99
193.42	3215.31
193.64	3254.22
193.85	3219.41
194.07	3493.83
194.28	3336.14
194.50	3086.29
194.71	3180.50
194.93	3483.59
195.14	3459.02
195.36	3190.74
195.57	3305.42
195.78	3567.56
196.00	3327.95
196.21	3182.54
196.43	3311.57
196.64	3274.70
196.86	3491.79
197.07	3205.07
197.29	2990.03
197.50	3463.12
197.72	3338.19
197.93	3084.24
198.15	3313.61
198.36	3571.66
198.57	3459.02
198.79	3200.98
199.00	3123.15
199.22	3340.24
199.43	3446.73
199.65	3168.21
199.86	3229.65
200.08	3370.96
200.29	3631.05
200.51	3184.59
200.72	3180.50
200.93	3209.17
201.15	3473.36
201.36	3098.58
201.58	3114.96
201.79	3305.42
202.01	3694.54
202.22	3211.22
202.44	3278.80
202.65	3348.43
202.86	3497.93
203.08	3248.08
203.29	3184.59
203.51	3366.86
203.72	3315.66
203.94	3248.08
204.15	3219.41
204.36	3350.48
204.58	3491.79
204.79	3217.36
205.01	3049.43
205.22	3442.64
205.44	3356.62
205.65	3203.02
205.86	3223.50
206.08	3440.59
206.29	3463.12
206.51	3211.22
206.72	3237.84
206.94	3555.27
207.15	3522.51
207.36	3106.77
207.58	3221.45
207.79	3381.20
208.01	3434.44
208.22	3280.85
208.43	3170.26
208.65	3459.02
208.86	3411.92
209.08	3330.00
209.29	3233.74
209.51	3669.96
209.72	3354.57
209.93	3284.94
210.15	3200.98
210.36	3393.48
210.58	3373.00
210.79	3049.43
211.00	3209.17
211.22	3452.88
211.43	3995.59
211.65	3250.13
211.86	3217.36
212.07	3563.47
212.29	3346.38
212.50	3100.62
212.72	3311.57
212.93	3704.78
213.14	3497.93
213.36	3317.71
213.57	3098.58
213.79	3473.36
214.00	3397.58
214.21	3301.33
214.43	3258.32
214.64	3469.26
214.85	3606.47
215.07	3260.37
215.28	3272.65
215.50	3626.95
215.71	3411.92
215.92	3145.68
216.14	3348.43
216.35	3440.59
216.57	3389.39
216.78	3354.57
216.99	3217.36
217.21	3504.07
217.42	3424.20
217.63	3176.40
217.85	3336.14
218.06	3432.40
218.28	3551.18
218.49	3299.28
218.70	3243.98
218.92	3643.34
219.13	3420.11
219.34	3364.81
219.56	3186.64
219.77	3465.16
219.98	3315.66
220.20	3354.57
220.41	3221.45
220.63	3508.17
220.84	3524.55
221.05	3317.71
221.27	3127.25
221.48	3762.12
221.69	3352.52
221.91	3227.60
222.12	3338.19
222.33	3502.03
222.55	3403.72
222.76	3196.88
222.97	3336.14
223.19	3442.64
223.40	3573.71
223.62	3233.74
223.83	3450.83
224.04	3657.67
224.26	3346.38
224.47	3217.36
224.68	3184.59
224.90	3612.62
225.11	3540.94
225.32	3260.37
225.54	3286.99
225.75	3405.77
225.96	3418.06
226.18	3274.70
226.39	3172.30
226.60	3436.49
226.82	3465.16
227.03	3301.33
227.24	3282.89
227.46	3502.03
227.67	3459.02
227.88	3440.59
228.10	3330.00
228.31	3538.89
228.52	3477.45
228.74	3313.61
228.95	3297.23
229.16	3629.00
229.38	3409.87
229.59	3243.98
229.80	3395.53
230.02	3530.70
230.23	3631.05
230.44	3413.96
230.66	3364.81
230.87	3745.73
231.08	3532.75
231.29	3471.31
231.51	3502.03
231.72	3592.14
231.93	3598.28
232.15	3342.28
232.36	3284.94
232.57	3676.10
232.79	3631.05
233.00	3260.37
233.21	3315.66
233.43	3602.38
233.64	3397.58
233.85	3348.43
234.07	3295.18
234.28	3502.03
234.49	3553.23
234.70	3364.81
234.92	3196.88
235.13	3540.94
235.34	3614.66
235.56	3430.35
235.77	3252.17
235.98	3643.34
236.20	3645.38
236.41	3522.51
236.62	3348.43
236.83	3704.78
237.05	3518.41
237.26	3422.16
237.47	3297.23
237.69	3704.78
237.90	3512.27
238.11	3350.48
238.32	3305.42
238.54	3491.79
238.75	3717.06
238.96	3358.67
239.18	3301.33
239.39	3702.73
239.60	3663.82
239.81	3295.18
240.03	3360.72
240.24	3573.71
240.45	3606.47
240.66	3301.33
240.88	3246.03
241.09	3758.02
241.30	3596.23
241.52	3325.90
241.73	3332.05
241.94	3839.94
242.15	3540.94
242.37	3317.71
242.58	3473.36
242.79	3739.59
243.00	3510.22
243.22	3315.66
243.43	3422.16
243.64	3604.42
243.85	3561.42
244.07	3426.25
244.28	3360.72
244.49	3676.10
244.71	3620.81
244.92	3786.69
245.13	3418.06
245.34	3731.40
245.56	3495.88
245.77	3442.64
245.98	3530.70
246.19	3467.21
246.41	3479.50
246.62	3475.40
246.83	3405.77
247.04	3575.75
247.26	3712.97
247.47	3706.82
247.68	3475.40
247.89	3938.24
248.11	3708.87
248.32	3530.70
248.53	3430.35
248.74	3983.30
248.95	3637.19
249.17	3600.33
249.38	3612.62
249.59	3942.34
249.80	3841.99
250.02	3450.83
250.23	3585.99
250.44	3882.95
250.65	3889.09
250.87	3667.91
251.08	3700.68
251.29	3973.06
251.50	4192.19
251.71	4100.03
251.93	4501.44
252.14	5599.15
252.35	7546.76
252.56	9750.38
252.78	14640.93
252.99	21675.70
253.20	29095.49
253.41	35610.08
253.62	39972.25
253.84	41125.26
254.05	37189.06
254.26	30191.16
254.47	22480.55
254.69	15361.81
254.90	9344.88
255.11	5779.37
255.32	4224.96
255.53	4370.37
255.75	4061.12
255.96	3686.34
256.17	3815.37
256.38	3983.30
256.59	3868.61
256.81	3596.23
257.02	3678.15
257.23	3839.94
257.44	3921.86
257.65	3790.79
257.87	3817.41
258.08	3811.27
258.29	3794.89
258.50	3712.97
258.71	3667.91
258.93	4063.17
259.14	3952.58
259.35	3624.90
259.56	3706.82
259.77	4087.75
259.99	3954.63
260.20	3780.55
260.41	3874.76
260.62	4167.62
260.83	3872.71
261.04	3733.45
261.26	3758.02
261.47	4132.80
261.68	3794.89
261.89	3655.62
262.10	3624.90
262.32	3954.63
262.53	3571.66
262.74	3811.27
262.95	3704.78
263.16	4104.13
263.37	4095.94
263.59	3678.15
263.80	3794.89
264.01	4093.89
264.22	3981.25
264.43	3778.50
264.64	3944.39
264.86	4282.30
265.07	4423.61
265.28	3934.15
265.49	3956.68
265.70	4306.88
265.91	4075.46
266.13	3841.99
266.34	3805.13
266.55	4040.64
266.76	4028.35
266.97	3751.88
267.18	4089.79
267.40	4106.18
267.61	4210.62
267.82	3919.81
268.03	3772.36
268.24	4167.62
268.45	4202.43
268.66	3827.65
268.88	3893.19
269.09	3807.17
269.30	3981.25
269.51	3921.86
269.72	3956.68
269.93	4038.59
270.14	4007.87
270.36	3876.80
270.57	3733.45
270.78	4130.75
270.99	4337.60
271.20	3995.59
271.41	3907.52
271.62	4245.44
271.84	4048.83
272.05	3885.00
272.26	3954.63
272.47	4308.93
272.68	4044.74
272.89	4089.79
273.10	3885.00
273.31	4190.14
273.53	4095.94
273.74	4206.53
273.95	4014.02
274.16	4124.61
274.37	3985.35
274.58	4063.17
274.79	4069.31
275.00	4046.79
275.22	4337.60
275.43	4085.70
275.64	4116.42
275.85	4210.62
276.06	4282.30
276.27	4083.65
276.48	3917.76
276.69	4159.42
276.90	4118.47
277.12	4120.51
277.33	3954.63
277.54	4317.12
277.75	4173.76
277.96	4061.12
278.17	4036.55
278.38	4161.47
278.59	4249.54
278.80	4124.61
279.02	4237.25
279.23	4345.79
279.44	4192.19
279.65	4134.85
279.86	4087.75
280.07	4356.03
280.28	4261.82
280.49	4165.57
280.70	4089.79
280.91	4388.80
281.12	4083.65
281.34	4020.16
281.55	4067.27
281.76	4184.00
281.97	4216.77
282.18	4089.79
282.39	4036.55
282.60	4284.35
282.81	4339.65
283.02	4046.79
283.23	3897.28
283.44	4222.91
283.66	4057.03
283.87	4171.71
284.08	4114.37
284.29	4206.53
284.50	4274.11
284.71	4155.33
284.92	3925.96
285.13	4349.89
285.34	4163.52
285.55	4052.93
285.76	4155.33
285.97	4177.86
286.18	4249.54
286.39	3962.82
286.61	4224.96
286.82	4286.40
287.03	4327.36
287.24	4005.83
287.45	4116.42
287.66	4231.10
287.87	3971.01
288.08	4085.70
288.29	4140.99
288.50	4257.73
288.71	4255.68
288.92	4394.94
289.13	4206.53
289.34	4464.57
289.55	4249.54
289.76	4255.68
289.97	4372.41
290.18	4499.39
290.40	4315.07
290.61	4179.90
290.82	4011.97
291.03	4376.51
291.24	4349.89
291.45	4106.18
291.66	4122.56
291.87	4362.17
292.08	4405.18
292.29	4200.38
292.50	4134.85
292.71	4528.06
292.92	4394.94
293.13	4292.54
293.34	4280.25
293.55	4523.96
293.76	4550.59
293.97	4356.03
294.18	4206.53
294.39	4374.46
294.60	4218.82
294.81	4239.30
295.02	4265.92
295.23	4517.82
295.44	4196.29
295.65	4374.46
295.86	4478.91
296.07	4818.87
296.28	4784.06
296.49	4911.03
296.70	4804.53
296.91	4999.09
297.12	4882.36
297.34	4759.48
297.55	4640.70
297.76	4630.46
297.97	4579.26
298.18	4261.82
298.39	4214.72
298.60	4499.39
298.81	4413.37
299.02	4052.93
299.23	4251.58
299.44	4382.65
299.65	4358.08
299.86	4399.04
300.07	4089.79
300.28	4370.37
300.49	4380.61
300.70	4249.54
300.91	4370.37
301.12	4622.27
301.33	4308.93
301.54	4345.79
301.75	4458.43
301.96	4872.12
302.17	4599.74
302.38	4624.31
302.59	4704.18
302.80	4720.57
303.01	4515.77
303.22	4353.98
303.42	4345.79
303.63	4337.60
303.84	4317.12
304.05	4110.27
304.26	4153.28
304.47	4440.00
304.68	4218.82
304.89	4192.19
305.10	4286.40
305.31	4403.13
305.52	4372.41
305.73	4138.94
305.94	4202.43
306.15	4440.00
306.36	4122.56
306.57	4093.89
306.78	4028.35
306.99	4128.70
307.20	4140.99
307.41	4165.57
307.62	4202.43
307.83	4274.11
308.04	4313.02
308.25	4118.47
308.46	4057.03
308.67	4181.95
308.88	4290.49
309.09	4005.83
309.30	4134.85
309.51	4069.31
309.72	4194.24
309.93	4061.12
310.13	3876.80
310.34	4646.84
310.55	4212.67
310.76	4003.78
310.97	4116.42
311.18	4558.78
311.39	4296.64
311.60	4540.35
311.81	5064.63
312.02	6027.17
312.23	6815.64
312.44	7382.93
312.65	8277.89
312.86	9824.11
313.07	8763.26
313.28	8396.67
313.49	7772.04
313.70	7427.98
313.90	6524.83
314.11	5713.83
314.32	5179.31
314.53	4730.81
314.74	4472.76
314.95	4073.41
315.16	4032.45
315.37	4161.47
315.58	3712.97
315.79	3925.96
316.00	3962.82
316.21	4132.80
316.42	4001.73
316.62	3809.22
316.83	3897.28
317.04	4270.01
317.25	4009.92
317.46	3895.24
317.67	3819.46
317.88	3956.68
318.09	3835.85
318.30	3782.60
318.51	3803.08
318.72	4011.97
318.93	3983.30
319.13	3876.80
319.34	3755.97
319.55	4175.81
319.76	4024.26
319.97	3778.50
320.18	3606.47
320.39	3934.15
320.60	3960.77
320.81	3792.84
321.02	3680.20
321.22	3872.71
321.43	3909.57
321.64	3764.17
321.85	3663.82
322.06	4028.35
322.27	3751.88
322.48	3823.56
322.69	3604.42
322.90	3925.96
323.11	3700.68
323.31	3588.04
323.52	3698.63
323.73	3690.44
323.94	3936.20
324.15	3770.31
324.36	3592.14
324.57	3889.09
324.78	3913.67
324.98	3762.12
325.19	3678.15
325.40	4143.04
325.61	3835.85
325.82	3706.82
326.03	3651.53
326.24	3948.48
326.45	3655.62
326.65	3624.90
326.86	3571.66
327.07	3665.86
327.28	3764.17
327.49	3688.39
327.70	3565.51
327.91	3846.09
328.12	3878.85
328.32	3667.91
328.53	3655.62
328.74	3798.98
328.95	3708.87
329.16	3590.09
329.37	3565.51
329.58	3768.26
329.78	3524.55
329.99	3753.93
330.20	3655.62
330.41	3725.26
330.62	3723.21
330.83	3645.38
331.04	3717.06
331.24	3792.84
331.45	3772.36
331.66	3610.57
331.87	3557.32
332.08	3737.54
332.29	3602.38
332.49	3700.68
332.70	3620.81
332.91	3778.50
333.12	3721.16
333.33	3672.01
333.54	3868.61
333.74	4143.04
333.95	4065.22
334.16	4120.51
334.37	4067.27
334.58	4280.25
334.79	3964.87
334.99	3766.21
335.20	3655.62
335.41	3710.92
335.62	3766.21
335.83	3649.48
336.04	3585.99
336.24	3831.75
336.45	3712.97
336.66	3559.37
336.87	3510.22
337.08	3522.51
337.29	3594.19
337.49	3663.82
337.70	3577.80
337.91	3522.51
338.12	3635.14
338.33	3631.05
338.53	3442.64
338.74	3651.53
338.95	3661.77
339.16	3456.97
339.37	3706.82
339.57	3483.59
339.78	3616.71
339.99	3563.47
340.20	3585.99
340.41	3577.80
340.61	3719.11
340.82	3510.22
341.03	3403.72
341.24	3604.42
341.45	3436.49
341.65	3669.96
341.86	3413.96
342.07	3934.15
342.28	3532.75
342.49	3532.75
342.69	3536.84
342.90	3561.42
343.11	3602.38
343.32	3348.43
343.53	3489.74
343.73	3649.48
343.94	3631.05
344.15	3456.97
344.36	3489.74
344.56	3444.68
344.77	3839.94
344.98	3469.26
345.19	3524.55
345.40	3571.66
345.60	3858.37
345.81	3516.36
346.02	3573.71
346.23	3579.85
346.43	3561.42
346.64	3577.80
346.85	3407.82
347.06	3385.29
347.27	3600.33
347.47	3524.55
347.68	3391.44
347.89	3704.78
348.10	3635.14
348.30	3536.84
348.51	3624.90
348.72	3704.78
348.93	3469.26
349.13	3524.55
349.34	3391.44
349.55	3729.35
349.76	3569.61
349.96	3653.58
350.17	3536.84
350.38	3700.68
350.59	3475.40
350.79	3516.36
351.00	3475.40
351.21	3778.50
351.42	3432.40
351.62	3395.53
351.83	3559.37
352.04	3485.64
352.25	3581.90
352.45	3657.67
352.66	3416.01
352.87	3497.93
353.08	3532.75
353.28	3407.82
353.49	3432.40
353.70	3547.08
353.90	3786.69
354.11	3542.99
354.32	3381.20
354.53	3491.79
354.73	3475.40
354.94	3588.04
355.15	3311.57
355.36	3669.96
355.56	3710.92
355.77	3485.64
355.98	3497.93
356.18	3516.36
356.39	3526.60
356.60	3448.78
356.81	3598.28
357.01	3637.19
357.22	3557.32
357.43	3487.69
357.63	3461.07
357.84	3696.58
358.05	3532.75
358.26	3428.30
358.46	3456.97
358.67	3583.95
358.88	3354.57
359.08	3579.85
359.29	3467.21
359.50	3616.71
359.71	3395.53
359.91	3446.73
360.12	3442.64
360.33	3588.04
360.53	3770.31
360.74	3538.89
360.95	3442.64
361.15	3483.59
361.36	3377.10
361.57	3504.07
361.78	3536.84
361.98	3561.42
362.19	3555.27
362.40	3581.90
362.60	3391.44
362.81	3745.73
363.02	3729.35
363.22	3647.43
363.43	3823.56
363.64	4290.49
363.84	4747.19
364.05	6023.08
364.26	7516.05
364.46	10499.94
364.67	13340.47
364.88	15263.51
365.08	16762.62
365.29	16516.87
365.50	15279.89
365.70	13381.43
365.91	11472.72
366.12	10446.69
366.32	9125.75
366.53	8339.33
366.74	7397.26
366.94	6737.82
367.15	5699.50
367.36	4962.23
367.56	4485.05
367.77	4163.52
367.98	4239.30
368.18	3762.12
368.39	3700.68
368.60	3669.96
368.80	3557.32
369.01	3479.50
369.22	3469.26
369.42	3657.67
369.63	3418.06
369.84	3631.05
370.04	3565.51
370.25	3602.38
370.46	3614.66
370.66	3549.13
370.87	3450.83
371.07	3680.20
371.28	3477.45
371.49	3485.64
371.69	3563.47
371.90	3741.64
372.11	3522.51
372.31	3479.50
372.52	3422.16
372.73	3700.68
372.93	3700.68
373.14	3434.44
373.34	3352.52
373.55	3538.89
373.76	3418.06
373.96	3375.05
374.17	3530.70
374.38	3506.12
374.58	3475.40
374.79	3579.85
374.99	3502.03
375.20	3358.67
375.41	3399.63
375.61	3420.11
375.82	3532.75
376.03	3403.72
376.23	3473.36
376.44	3364.81
376.64	3495.88
376.85	3643.34
377.06	3626.95
377.26	3463.12
377.47	3502.03
377.67	3575.75
377.88	3475.40
378.09	3454.92
378.29	3504.07
378.50	3626.95
378.70	3346.38
378.91	3448.78
379.12	3387.34
379.32	3387.34
379.53	3647.43
379.73	3401.68
379.94	3479.50
380.15	3698.63
380.35	3323.85
380.56	3575.75
380.76	3471.31
380.97	3551.18
381.18	3499.98
381.38	3313.61
381.59	3311.57
381.79	3643.34
382.00	3567.56
382.21	3557.32
382.41	3344.33
382.62	3635.14
382.82	3573.71
383.03	3225.55
383.23	3520.46
383.44	3753.93
383.65	3426.25
383.85	3551.18
384.06	3456.97
384.26	3575.75
384.47	3268.56
384.67	3577.80
384.88	3557.32
385.09	3643.34
385.29	3559.37
385.50	3563.47
385.70	3395.53
385.91	3565.51
386.11	3360.72
386.32	3422.16
386.53	3553.23
386.73	3581.90
386.94	3450.83
387.14	3379.15
387.35	3348.43
387.55	3477.45
387.76	3350.48
387.96	3356.62
388.17	3399.63
388.38	3450.83
388.58	3651.53
388.79	3448.78
388.99	3428.30
389.20	3522.51
389.40	3313.61
389.61	3428.30
389.81	3520.46
390.02	3350.48
390.22	3616.71
390.43	3497.93
390.64	3446.73
390.84	3661.77
391.05	3631.05
391.25	3375.05
391.46	3485.64
391.66	3608.52
391.87	3499.98
392.07	3454.92
392.28	3463.12
392.48	3508.17
392.69	3438.54
392.89	3465.16
393.10	3520.46
393.30	3413.96
393.51	3497.93
393.71	3565.51
393.92	3426.25
394.12	3721.16
394.33	3514.31
394.54	3686.34
394.74	3426.25
394.95	3815.37
395.15	3354.57
395.36	3375.05
395.56	3391.44
395.77	3387.34
395.97	3727.30
396.18	3348.43
396.38	3364.81
396.59	3559.37
396.79	3471.31
397.00	3575.75
397.20	3588.04
397.41	3678.15
397.61	3502.03
397.82	3473.36
398.02	3459.02
398.23	3715.02
398.43	3553.23
398.64	3327.95
398.84	3438.54
399.05	3536.84
399.25	3420.11
399.46	3413.96
399.66	3534.79
399.87	3667.91
400.07	3536.84
400.28	3409.87
400.48	3526.60
400.68	3626.95
400.89	3467.21
401.09	3448.78
401.30	3395.53
401.50	3657.67
401.71	3583.95
401.91	3489.74
402.12	3590.09
402.32	3588.04
402.53	3444.68
402.73	3618.76
402.94	3864.52
403.14	4159.42
403.35	5009.33
403.55	6498.20
403.76	8933.24
403.96	13817.65
404.16	19687.12
404.37	25167.49
404.57	27270.75
404.78	27678.30
404.98	26224.24
405.19	22015.66
405.39	17374.97
405.60	13598.51
405.80	10923.87
406.01	9160.56
406.21	7464.85
406.42	6469.53
406.62	5597.10
406.82	4978.61
407.03	4650.94
407.23	4808.63
407.44	5232.56
407.64	5275.57
407.85	5224.37
408.05	5664.68
408.26	4900.79
408.46	4542.39
408.66	4270.01
408.87	4065.22
409.07	4054.98
409.28	3876.80
409.48	3809.22
409.69	3770.31
409.89	3866.56
410.09	3622.86
410.30	3540.94
410.50	3743.69
410.71	3803.08
410.91	3622.86
411.12	3444.68
411.32	3657.67
411.52	3600.33
411.73	3629.00
411.93	3434.44
412.14	3729.35
412.34	3647.43
412.55	3389.39
412.75	3508.17
412.95	3540.94
413.16	3512.27
413.36	3542.99
413.57	3577.80
413.77	3809.22
413.97	3704.78
414.18	3686.34
414.38	3485.64
414.59	3571.66
414.79	3547.08
414.99	3551.18
415.20	3680.20
415.40	3557.32
415.61	3362.76
415.81	3510.22
416.01	3426.25
416.22	3682.25
416.42	3493.83
416.63	3514.31
416.83	3520.46
417.03	3616.71
417.24	3672.01
417.44	3426.25
417.65	3463.12
417.85	3751.88
418.05	3604.42
418.26	3575.75
418.46	3598.28
418.66	3461.07
418.87	3573.71
419.07	3432.40
419.28	3561.42
419.48	3524.55
419.68	3502.03
419.89	3571.66
420.09	3592.14
420.29	3557.32
420.50	3569.61
420.70	3663.82
420.91	3622.86
421.11	3528.65
421.31	3395.53
421.52	3545.03
421.72	3477.45
421.92	3461.07
422.13	3526.60
422.33	3430.35
422.53	3588.04
422.74	3637.19
422.94	3391.44
423.15	3563.47
423.35	3418.06
423.55	3629.00
423.76	3473.36
423.96	3526.60
424.16	3475.40
424.37	3561.42
424.57	3721.16
424.77	3428.30
424.98	3469.26
425.18	3446.73
425.38	3682.25
425.59	3418.06
425.79	3436.49
425.99	3663.82
426.20	3418.06
426.40	3438.54
426.60	3434.44
426.81	3700.68
427.01	3649.48
427.21	3516.36
427.42	3430.35
427.62	3680.20
427.82	3743.69
428.03	3663.82
428.23	3471.31
428.43	3661.77
428.64	3608.52
428.84	3565.51
429.04	3542.99
429.25	3968.96
429.45	3518.41
429.65	3553.23
429.86	3514.31
430.06	3592.14
430.26	3565.51
430.47	3446.73
430.67	3579.85
430.87	3741.64
431.08	3637.19
431.28	3604.42
431.48	3590.09
431.68	3557.32
431.89	3499.98
432.09	3620.81
432.29	3620.81
432.50	3758.02
432.70	3618.76
432.90	3622.86
433.11	3680.20
433.31	3823.56
433.51	3919.81
433.72	3991.49
433.92	4003.78
434.12	4657.08
434.32	5240.75
434.53	7772.04
434.73	11951.95
434.93	19939.02
435.14	32937.48
435.34	49544.46
435.54	63333.43
435.74	65535.00
435.95	65535.00
436.15	65535.00
436.35	59235.45
436.56	46064.96
436.76	35737.05
436.96	30039.61
437.16	23416.47
437.37	18079.47
437.57	12736.32
437.77	8925.05
437.97	6180.77
438.18	5031.86
438.38	4155.33
438.58	4022.21
438.79	3823.56
438.99	3925.96
439.19	3917.76
439.39	3655.62
439.60	3612.62
439.80	3723.21
440.00	3643.34
440.20	3473.36
440.41	3413.96
440.61	3653.58
440.81	3588.04
441.01	3528.65
441.22	3741.64
441.42	3676.10
441.62	3542.99
441.82	3571.66
442.03	3579.85
442.23	3682.25
442.43	3567.56
442.63	3514.31
442.84	3512.27
443.04	3506.12
443.24	3663.82
443.44	3454.92
443.65	3532.75
443.85	3590.09
444.05	3504.07
444.25	3459.02
444.46	3583.95
444.66	3569.61
444.86	3436.49
445.06	3424.20
445.26	3669.96
445.47	3690.44
445.67	3473.36
445.87	3551.18
446.07	3528.65
446.28	3745.73
446.48	3508.17
446.68	3508.17
446.88	3459.02
447.08	3733.45
447.29	3381.20
447.49	3452.88
447.69	3391.44
447.89	3739.59
448.10	3653.58
448.30	3381.20
